/*--------------------------------*- C++ -*----------------------------------*\
| =========                 |                                                 |
| \\      /  F ield         | OpenFOAM: The Open Source CFD Toolbox           |
|  \\    /   O peration     | Version:  2306                                  |
|   \\  /    A nd           | Website:  www.openfoam.com                      |
|    \\/     M anipulation  |                                                 |
\*---------------------------------------------------------------------------*/
FoamFile
{
    version     2.0;
    format      ascii;
    arch        "LSB;label=32;scalar=64";
    class       volScalarField;
    location    "0.9/electrolyte";
    object      T;
}
// * * * * * * * * * * * * * * * * * * * * * * * * * * * * * * * * * * * * * //

dimensions      [0 0 0 1 0 0 0];

internalField   nonuniform List<scalar> 
4000
(
1109.09
1108.958
1110.667
1109.096
1108.65
1110.656
1108.964
1112.136
1110.67
1109.102
1108.077
1110.63
1108.656
1112.159
1110.659
1108.97
1113.529
1112.136
1110.673
1109.108
1107.107
1110.575
1108.084
1112.211
1110.632
1108.663
1113.563
1112.159
1110.662
1108.975
1114.877
1113.526
1112.136
1110.676
1109.113
1105.675
1110.473
1107.119
1112.3
1110.576
1108.092
1113.64
1112.21
1110.634
1108.669
1114.915
1113.56
1112.159
1110.664
1108.981
1116.188
1114.872
1113.523
1112.135
1110.678
1104.04
1110.291
1105.699
1112.435
1110.471
1107.132
1113.776
1112.297
1110.577
1108.1
1114.999
1113.636
1112.209
1110.635
1108.675
1116.225
1114.909
1113.557
1112.158
1110.666
1117.46
1116.181
1114.867
1113.52
1112.135
1102.543
1110.001
1104.081
1112.601
1110.286
1105.723
1113.989
1112.429
1110.469
1107.145
1115.148
1113.77
1112.294
1110.577
1108.109
1116.309
1114.992
1113.632
1112.207
1110.637
1117.496
1116.218
1114.903
1113.553
1112.157
1118.692
1117.451
1116.173
1114.861
1113.516
1101.431
1109.664
1102.6
1112.712
1109.996
1104.121
1114.273
1112.589
1110.28
1105.747
1115.385
1113.98
1112.422
1110.467
1107.159
1116.459
1115.14
1113.764
1112.291
1110.577
1117.578
1116.301
1114.986
1113.628
1112.205
1118.727
1117.487
1116.21
1114.898
1113.55
1119.883
1118.682
1117.442
1116.166
1114.855
1100.844
1109.374
1101.499
1112.75
1109.661
1102.655
1114.524
1112.695
1109.99
1104.16
1115.704
1114.257
1112.576
1110.275
1105.771
1116.698
1115.374
1113.971
1112.415
1110.464
1117.723
1116.45
1115.132
1113.758
1112.287
1118.804
1117.568
1116.293
1114.979
1113.623
1119.915
1118.716
1117.478
1116.202
1114.891
1121.03
1119.872
1118.672
1117.433
1116.158
1100.844
1109.208
1100.917
1112.747
1109.375
1101.565
1114.702
1112.733
1109.658
1102.709
1116.004
1114.504
1112.679
1109.984
1104.199
1117.022
1115.687
1114.242
1112.564
1110.269
1117.954
1116.686
1115.363
1113.961
1112.408
1118.943
1117.712
1116.44
1115.124
1113.752
1119.99
1118.794
1117.558
1116.285
1114.973
1121.062
1119.904
1118.706
1117.469
1116.194
1122.135
1121.019
1119.86
1118.661
1117.424
1101.431
1109.208
1100.917
1112.735
1109.211
1100.989
1114.807
1112.73
1109.375
1101.629
1116.232
1114.679
1112.716
1109.655
1102.761
1117.332
1115.982
1114.484
1112.663
1109.978
1118.269
1117.004
1115.67
1114.226
1112.551
1119.165
1117.941
1116.673
1115.351
1113.951
1120.122
1118.931
1117.701
1116.43
1115.115
1121.132
1119.978
1118.783
1117.548
1116.276
1122.164
1121.05
1119.893
1118.695
1117.459
1123.195
1122.122
1121.007
1119.849
1118.651
1102.543
1109.374
1101.499
1112.735
1109.211
1100.989
1114.855
1112.718
1109.213
1101.06
1116.379
1114.784
1112.713
1109.374
1101.693
1117.574
1116.208
1114.657
1112.698
1109.651
1118.574
1117.31
1115.961
1114.464
1112.646
1119.466
1118.251
1116.986
1115.653
1114.21
1120.333
1119.151
1117.927
1116.66
1115.339
1121.258
1120.109
1118.919
1117.69
1116.42
1122.232
1121.12
1119.966
1118.772
1117.538
1123.224
1122.152
1121.038
1119.881
1118.685
1124.212
1123.183
1122.11
1120.995
1119.838
1104.04
1109.664
1102.6
1112.747
1109.375
1101.565
1114.855
1112.718
1109.213
1101.06
1116.45
1114.832
1112.701
1109.214
1101.129
1117.735
1116.354
1114.761
1112.695
1109.374
1118.815
1117.55
1116.184
1114.634
1112.681
1119.76
1118.552
1117.288
1115.939
1114.443
1120.62
1119.448
1118.233
1116.968
1115.636
1121.459
1120.318
1119.136
1117.913
1116.647
1122.352
1121.245
1120.096
1118.907
1117.678
1123.288
1122.219
1121.107
1119.954
1118.76
1124.24
1123.211
1122.14
1121.025
1119.87
1125.186
1124.2
1123.17
1122.097
1120.982
1105.675
1110.001
1104.081
1112.75
1109.661
1102.655
1114.807
1112.73
1109.375
1101.629
1116.45
1114.832
1112.701
1109.214
1101.129
1117.814
1116.424
1114.808
1112.684
1109.216
1118.977
1117.709
1116.328
1114.737
1112.678
1119.993
1118.791
1117.525
1116.16
1114.612
1120.9
1119.738
1118.53
1117.266
1115.917
1121.732
1120.601
1119.43
1118.214
1116.95
1122.543
1121.444
1120.303
1119.122
1117.899
1123.403
1122.338
1121.231
1120.083
1118.895
1124.302
1123.275
1122.206
1121.095
1119.942
1125.213
1124.227
1123.198
1122.127
1121.013
1126.118
1125.173
1124.187
1123.157
1122.085
1107.107
1110.291
1105.699
1112.712
1109.996
1104.121
1114.702
1112.733
1109.658
1102.709
1116.379
1114.784
1112.713
1109.374
1101.693
1117.814
1116.424
1114.808
1112.684
1109.216
1119.057
1117.788
1116.398
1114.784
1112.667
1120.151
1118.951
1117.683
1116.303
1114.714
1121.124
1119.97
1118.767
1117.501
1116.135
1121.999
1120.879
1119.716
1118.508
1117.244
1122.804
1121.714
1120.583
1119.411
1118.196
1123.586
1122.528
1121.428
1120.288
1119.107
1124.412
1123.389
1122.324
1121.218
1120.07
1125.272
1124.288
1123.262
1122.193
1121.082
1126.143
1125.2
1124.214
1123.185
1122.114
1127.006
1126.104
1125.16
1124.173
1123.144
1108.077
1110.473
1107.119
1112.601
1110.286
1105.723
1114.524
1112.695
1109.99
1104.16
1116.232
1114.679
1112.716
1109.655
1102.761
1117.735
1116.354
1114.761
1112.695
1109.374
1119.057
1117.788
1116.398
1114.784
1112.667
1120.229
1119.031
1117.761
1116.373
1114.76
1121.276
1120.126
1118.926
1117.658
1116.277
1122.214
1121.101
1119.946
1118.743
1117.476
1123.059
1121.979
1120.857
1119.694
1118.486
1123.835
1122.786
1121.695
1120.564
1119.392
1124.587
1123.571
1122.513
1121.413
1120.273
1125.378
1124.398
1123.375
1122.31
1121.204
1126.2
1125.259
1124.275
1123.248
1122.18
1127.031
1126.13
1125.186
1124.201
1123.172
1127.854
1126.993
1126.091
1125.147
1124.16
1108.65
1110.575
1108.084
1112.435
1110.471
1107.132
1114.273
1112.589
1110.28
1105.747
1116.004
1114.504
1112.679
1109.984
1104.199
1117.574
1116.208
1114.657
1112.698
1109.651
1118.977
1117.709
1116.328
1114.737
1112.678
1120.229
1119.031
1117.761
1116.373
1114.76
1121.351
1120.204
1119.005
1117.735
1116.347
1122.359
1121.252
1120.101
1118.901
1117.632
1123.265
1122.192
1121.078
1119.922
1118.718
1124.08
1123.039
1121.958
1120.836
1119.673
1124.826
1123.817
1122.768
1121.677
1120.546
1125.547
1124.572
1123.555
1122.497
1121.397
1126.302
1125.364
1124.384
1123.361
1122.296
1127.086
1126.187
1125.245
1124.261
1123.235
1127.877
1127.018
1126.116
1125.173
1124.187
1128.66
1127.841
1126.98
1126.078
1125.134
1108.958
1110.63
1108.656
1112.3
1110.576
1108.092
1113.989
1112.429
1110.469
1107.145
1115.704
1114.257
1112.576
1110.275
1105.771
1117.332
1115.982
1114.484
1112.663
1109.978
1118.815
1117.55
1116.184
1114.634
1112.681
1120.151
1118.951
1117.683
1116.303
1114.714
1121.351
1120.204
1119.005
1117.735
1116.347
1122.432
1121.327
1120.179
1118.979
1117.709
1123.404
1122.336
1121.228
1120.076
1118.875
1124.277
1123.243
1122.169
1121.055
1119.899
1125.061
1124.06
1123.019
1121.937
1120.815
1125.777
1124.809
1123.799
1122.749
1121.658
1126.465
1125.532
1124.557
1123.54
1122.481
1127.185
1126.288
1125.35
1124.369
1123.347
1127.931
1127.073
1126.173
1125.231
1124.248
1128.683
1127.864
1127.005
1126.103
1125.16
1129.426
1128.647
1127.828
1126.967
1126.065
1109.09
1110.656
1108.964
1112.211
1110.632
1108.663
1113.776
1112.297
1110.577
1108.1
1115.385
1113.98
1112.422
1110.467
1107.159
1117.022
1115.687
1114.242
1112.564
1110.269
1118.574
1117.31
1115.961
1114.464
1112.646
1119.993
1118.791
1117.525
1116.16
1114.612
1121.276
1120.126
1118.926
1117.658
1116.277
1122.432
1121.327
1120.179
1118.979
1117.709
1123.474
1122.408
1121.303
1120.153
1118.953
1124.411
1123.382
1122.313
1121.204
1120.052
1125.251
1124.256
1123.221
1122.147
1121.032
1126.003
1125.042
1124.04
1122.998
1121.916
1126.687
1125.759
1124.791
1123.781
1122.731
1127.342
1126.45
1125.516
1124.541
1123.524
1128.026
1127.171
1126.274
1125.336
1124.355
1128.735
1127.918
1127.059
1126.159
1125.218
1129.449
1128.67
1127.851
1126.991
1126.09
1130.153
1129.413
1128.634
1127.814
1126.954
1110.667
1109.096
1112.159
1110.659
1108.97
1113.64
1112.21
1110.634
1108.669
1115.148
1113.77
1112.294
1110.577
1108.109
1116.698
1115.374
1113.971
1112.415
1110.464
1118.269
1117.004
1115.67
1114.226
1112.551
1119.76
1118.552
1117.288
1115.939
1114.443
1121.124
1119.97
1118.767
1117.501
1116.135
1122.359
1121.252
1120.101
1118.901
1117.632
1123.474
1122.408
1121.303
1120.153
1118.953
1124.478
1123.451
1122.385
1121.278
1120.128
1125.38
1124.389
1123.359
1122.29
1121.18
1126.186
1125.23
1124.235
1123.2
1122.124
1126.905
1125.984
1125.022
1124.02
1122.978
1127.556
1126.67
1125.742
1124.773
1123.763
1128.179
1127.327
1126.435
1125.501
1124.525
1128.828
1128.013
1127.157
1126.26
1125.321
1129.499
1128.722
1127.904
1127.046
1126.146
1130.174
1129.436
1128.657
1127.838
1126.978
1130.84
1130.14
1129.401
1128.621
1127.801
1112.136
1110.67
1109.102
1113.563
1112.159
1110.662
1108.975
1114.999
1113.636
1112.209
1110.635
1108.675
1116.459
1115.14
1113.764
1112.291
1110.577
1117.954
1116.686
1115.363
1113.961
1112.408
1119.466
1118.251
1116.986
1115.653
1114.21
1120.9
1119.738
1118.53
1117.266
1115.917
1122.214
1121.101
1119.946
1118.743
1117.476
1123.404
1122.336
1121.228
1120.076
1118.875
1124.478
1123.451
1122.385
1121.278
1120.128
1125.444
1124.456
1123.428
1122.361
1121.254
1126.31
1125.359
1124.368
1123.337
1122.266
1127.082
1126.166
1125.21
1124.214
1123.178
1127.768
1126.887
1125.965
1125.003
1124
1128.386
1127.54
1126.653
1125.724
1124.755
1128.976
1128.164
1127.312
1126.419
1125.485
1129.589
1128.814
1127.999
1127.143
1126.245
1130.224
1129.486
1128.709
1127.891
1127.032
1130.861
1130.162
1129.423
1128.644
1127.825
1131.49
1130.828
1130.127
1129.388
1128.608
1113.529
1112.136
1110.673
1109.108
1114.915
1113.56
1112.159
1110.664
1108.981
1116.309
1114.992
1113.632
1112.207
1110.637
1117.723
1116.45
1115.132
1113.758
1112.287
1119.165
1117.941
1116.673
1115.351
1113.951
1120.62
1119.448
1118.233
1116.968
1115.636
1121.999
1120.879
1119.716
1118.508
1117.244
1123.265
1122.192
1121.078
1119.922
1118.718
1124.411
1123.382
1122.313
1121.204
1120.052
1125.444
1124.456
1123.428
1122.361
1121.254
1126.373
1125.423
1124.434
1123.406
1122.338
1127.202
1126.29
1125.338
1124.346
1123.314
1127.939
1127.062
1126.146
1125.189
1124.193
1128.591
1127.75
1126.868
1125.946
1124.983
1129.177
1128.37
1127.523
1126.635
1125.707
1129.733
1128.961
1128.149
1127.297
1126.404
1130.311
1129.576
1128.8
1127.985
1127.129
1130.909
1130.211
1129.473
1128.695
1127.877
1131.51
1130.849
1130.149
1129.41
1128.631
1132.101
1131.477
1130.815
1130.115
1129.375
1114.877
1113.526
1112.136
1110.676
1109.113
1116.225
1114.909
1113.557
1112.158
1110.666
1117.578
1116.301
1114.986
1113.628
1112.205
1118.943
1117.712
1116.44
1115.124
1113.752
1120.333
1119.151
1117.927
1116.66
1115.339
1121.732
1120.601
1119.43
1118.214
1116.95
1123.059
1121.979
1120.857
1119.694
1118.486
1124.277
1123.243
1122.169
1121.055
1119.899
1125.38
1124.389
1123.359
1122.29
1121.18
1126.373
1125.423
1124.434
1123.406
1122.338
1127.263
1126.352
1125.402
1124.412
1123.383
1128.056
1127.182
1126.269
1125.317
1124.324
1128.758
1127.92
1127.043
1126.126
1125.169
1129.376
1128.574
1127.732
1126.849
1125.927
1129.929
1129.161
1128.354
1127.506
1126.618
1130.452
1129.719
1128.947
1128.135
1127.282
1130.995
1130.298
1129.562
1128.787
1127.971
1131.557
1130.897
1130.198
1129.46
1128.682
1132.121
1131.498
1130.836
1130.136
1129.397
1132.676
1132.089
1131.465
1130.803
1130.102
1116.188
1114.872
1113.523
1112.135
1110.678
1117.496
1116.218
1114.903
1113.553
1112.157
1118.804
1117.568
1116.293
1114.979
1113.623
1120.122
1118.931
1117.701
1116.43
1115.115
1121.459
1120.318
1119.136
1117.913
1116.647
1122.804
1121.714
1120.583
1119.411
1118.196
1124.08
1123.039
1121.958
1120.836
1119.673
1125.251
1124.256
1123.221
1122.147
1121.032
1126.31
1125.359
1124.368
1123.337
1122.266
1127.263
1126.352
1125.402
1124.412
1123.383
1128.114
1127.243
1126.331
1125.38
1124.39
1128.871
1128.036
1127.162
1126.249
1125.295
1129.538
1128.739
1127.901
1127.024
1126.106
1130.123
1129.359
1128.556
1127.714
1126.831
1130.643
1129.913
1129.145
1128.337
1127.489
1131.132
1130.438
1129.705
1128.932
1128.119
1131.641
1130.982
1130.285
1129.549
1128.773
1132.167
1131.545
1130.884
1130.185
1129.446
1132.696
1132.109
1131.486
1130.824
1130.123
1133.214
1132.664
1132.077
1131.453
1130.79
1117.46
1116.181
1114.867
1113.52
1112.135
1118.727
1117.487
1116.21
1114.898
1113.55
1119.99
1118.794
1117.558
1116.285
1114.973
1121.258
1120.109
1118.919
1117.69
1116.42
1122.543
1121.444
1120.303
1119.122
1117.899
1123.835
1122.786
1121.695
1120.564
1119.392
1125.061
1124.06
1123.019
1121.937
1120.815
1126.186
1125.23
1124.235
1123.2
1122.124
1127.202
1126.29
1125.338
1124.346
1123.314
1128.114
1127.243
1126.331
1125.38
1124.39
1128.928
1128.095
1127.222
1126.311
1125.359
1129.648
1128.852
1128.017
1127.143
1126.228
1130.28
1129.52
1128.721
1127.882
1127.004
1130.832
1130.106
1129.342
1128.539
1127.696
1131.318
1130.627
1129.898
1129.129
1128.321
1131.775
1131.118
1130.424
1129.69
1128.917
1132.249
1131.628
1130.969
1130.271
1129.535
1132.74
1132.155
1131.532
1130.871
1130.172
1133.233
1132.684
1132.097
1131.473
1130.811
1133.715
1133.202
1132.652
1132.065
1131.44
1118.692
1117.451
1116.173
1114.861
1113.516
1119.915
1118.716
1117.478
1116.202
1114.891
1121.132
1119.978
1118.783
1117.548
1116.276
1122.352
1121.245
1120.096
1118.907
1117.678
1123.586
1122.528
1121.428
1120.288
1119.107
1124.826
1123.817
1122.768
1121.677
1120.546
1126.003
1125.042
1124.04
1122.998
1121.916
1127.082
1126.166
1125.21
1124.214
1123.178
1128.056
1127.182
1126.269
1125.317
1124.324
1128.928
1128.095
1127.222
1126.311
1125.359
1129.704
1128.909
1128.075
1127.203
1126.29
1130.388
1129.63
1128.834
1127.998
1127.123
1130.985
1130.263
1129.502
1128.703
1127.864
1131.503
1130.815
1130.09
1129.325
1128.521
1131.957
1131.303
1130.612
1129.882
1129.113
1132.38
1131.761
1131.104
1130.409
1129.676
1132.821
1132.237
1131.615
1130.956
1130.258
1133.277
1132.728
1132.143
1131.519
1130.858
1133.735
1133.221
1132.672
1132.085
1131.461
1134.182
1133.704
1133.19
1132.64
1132.053
1119.883
1118.682
1117.442
1116.166
1114.855
1121.062
1119.904
1118.706
1117.469
1116.194
1122.232
1121.12
1119.966
1118.772
1117.538
1123.403
1122.338
1121.231
1120.083
1118.895
1124.587
1123.571
1122.513
1121.413
1120.273
1125.777
1124.809
1123.799
1122.749
1121.658
1126.905
1125.984
1125.022
1124.02
1122.978
1127.939
1127.062
1126.146
1125.189
1124.193
1128.871
1128.036
1127.162
1126.249
1125.295
1129.704
1128.909
1128.075
1127.203
1126.29
1130.442
1129.686
1128.89
1128.056
1127.183
1131.091
1130.371
1129.612
1128.815
1127.979
1131.653
1130.969
1130.246
1129.485
1128.684
1132.138
1131.487
1130.799
1130.073
1129.308
1132.559
1131.942
1131.288
1130.597
1129.866
1132.949
1132.367
1131.748
1131.091
1130.395
1133.356
1132.808
1132.224
1131.602
1130.942
1133.778
1133.265
1132.716
1132.13
1131.507
1134.201
1133.723
1133.21
1132.66
1132.073
1134.613
1134.171
1133.693
1133.178
1132.628
1121.03
1119.872
1118.672
1117.433
1116.158
1122.164
1121.05
1119.893
1118.695
1117.459
1123.288
1122.219
1121.107
1119.954
1118.76
1124.412
1123.389
1122.324
1121.218
1120.07
1125.547
1124.572
1123.555
1122.497
1121.397
1126.687
1125.759
1124.791
1123.781
1122.731
1127.768
1126.887
1125.965
1125.003
1124
1128.758
1127.92
1127.043
1126.126
1125.169
1129.648
1128.852
1128.017
1127.143
1126.228
1130.442
1129.686
1128.89
1128.056
1127.183
1131.144
1130.425
1129.667
1128.872
1128.037
1131.756
1131.073
1130.353
1129.594
1128.796
1132.285
1131.637
1130.952
1130.228
1129.467
1132.736
1132.122
1131.471
1130.783
1130.056
1133.124
1132.544
1131.928
1131.273
1130.581
1133.482
1132.936
1132.354
1131.734
1131.076
1133.855
1133.344
1132.796
1132.211
1131.589
1134.243
1133.766
1133.253
1132.704
1132.118
1134.632
1134.189
1133.712
1133.198
1132.648
1135.009
1134.602
1134.159
1133.681
1133.167
1122.135
1121.019
1119.86
1118.661
1117.424
1123.224
1122.152
1121.038
1119.881
1118.685
1124.302
1123.275
1122.206
1121.095
1119.942
1125.378
1124.398
1123.375
1122.31
1121.204
1126.465
1125.532
1124.557
1123.54
1122.481
1127.556
1126.67
1125.742
1124.773
1123.763
1128.591
1127.75
1126.868
1125.946
1124.983
1129.538
1128.739
1127.901
1127.024
1126.106
1130.388
1129.63
1128.834
1127.998
1127.123
1131.144
1130.425
1129.667
1128.872
1128.037
1131.808
1131.126
1130.407
1129.649
1128.853
1132.386
1131.74
1131.056
1130.335
1129.576
1132.88
1132.269
1131.621
1130.935
1130.211
1133.298
1132.721
1132.107
1131.455
1130.767
1133.654
1133.11
1132.53
1131.913
1131.258
1133.979
1133.469
1132.923
1132.34
1131.72
1134.319
1133.844
1133.332
1132.783
1132.198
1134.673
1134.232
1133.755
1133.241
1132.692
1135.028
1134.62
1134.178
1133.7
1133.186
1135.371
1134.999
1134.591
1134.148
1133.669
1123.195
1122.122
1121.007
1119.849
1118.651
1124.24
1123.211
1122.14
1121.025
1119.87
1125.272
1124.288
1123.262
1122.193
1121.082
1126.302
1125.364
1124.384
1123.361
1122.296
1127.342
1126.45
1125.516
1124.541
1123.524
1128.386
1127.54
1126.653
1125.724
1124.755
1129.376
1128.574
1127.732
1126.849
1125.927
1130.28
1129.52
1128.721
1127.882
1127.004
1131.091
1130.371
1129.612
1128.815
1127.979
1131.808
1131.126
1130.407
1129.649
1128.853
1132.437
1131.791
1131.109
1130.389
1129.631
1132.979
1132.369
1131.723
1131.039
1130.318
1133.44
1132.864
1132.253
1131.604
1130.918
1133.825
1133.283
1132.705
1132.091
1131.44
1134.148
1133.64
1133.096
1132.516
1131.898
1134.441
1133.967
1133.457
1132.91
1132.327
1134.749
1134.308
1133.832
1133.319
1132.771
1135.069
1134.662
1134.22
1133.743
1133.229
1135.389
1135.017
1134.609
1134.167
1133.688
1135.699
1135.361
1134.988
1134.58
1134.137
1124.212
1123.183
1122.11
1120.995
1119.838
1125.213
1124.227
1123.198
1122.127
1121.013
1126.2
1125.259
1124.275
1123.248
1122.18
1127.185
1126.288
1125.35
1124.369
1123.347
1128.179
1127.327
1126.435
1125.501
1124.525
1129.177
1128.37
1127.523
1126.635
1125.707
1130.123
1129.359
1128.556
1127.714
1126.831
1130.985
1130.263
1129.502
1128.703
1127.864
1131.756
1131.073
1130.353
1129.594
1128.796
1132.437
1131.791
1131.109
1130.389
1129.631
1133.029
1132.42
1131.775
1131.092
1130.371
1133.537
1132.963
1132.353
1131.706
1131.022
1133.964
1133.424
1132.849
1132.237
1131.588
1134.316
1133.81
1133.268
1132.69
1132.076
1134.608
1134.135
1133.626
1133.082
1132.501
1134.869
1134.429
1133.954
1133.444
1132.897
1135.143
1134.737
1134.296
1133.819
1133.307
1135.43
1135.058
1134.651
1134.209
1133.731
1135.717
1135.379
1135.006
1134.598
1134.155
1135.993
1135.689
1135.35
1134.977
1134.569
1125.186
1124.2
1123.17
1122.097
1120.982
1126.143
1125.2
1124.214
1123.185
1122.114
1127.086
1126.187
1125.245
1124.261
1123.235
1128.026
1127.171
1126.274
1125.336
1124.355
1128.976
1128.164
1127.312
1126.419
1125.485
1129.929
1129.161
1128.354
1127.506
1126.618
1130.832
1130.106
1129.342
1128.539
1127.696
1131.653
1130.969
1130.246
1129.485
1128.684
1132.386
1131.74
1131.056
1130.335
1129.576
1133.029
1132.42
1131.775
1131.092
1130.371
1133.586
1133.013
1132.404
1131.758
1131.075
1134.06
1133.522
1132.947
1132.337
1131.69
1134.454
1133.949
1133.409
1132.833
1132.221
1134.773
1134.302
1133.796
1133.254
1132.675
1135.032
1134.594
1134.121
1133.613
1133.068
1135.261
1134.857
1134.417
1133.942
1133.431
1135.503
1135.132
1134.726
1134.284
1133.807
1135.757
1135.419
1135.047
1134.64
1134.197
1136.011
1135.706
1135.368
1134.995
1134.587
1136.253
1135.983
1135.678
1135.339
