/*--------------------------------*- C++ -*----------------------------------*\
| =========                 |                                                 |
| \\      /  F ield         | OpenFOAM: The Open Source CFD Toolbox           |
|  \\    /   O peration     | Version:  2306                                  |
|   \\  /    A nd           | Website:  www.openfoam.com                      |
|    \\/     M anipulation  |                                                 |
\*---------------------------------------------------------------------------*/
FoamFile
{
    version     2.0;
    format      ascii;
    arch        "LSB;label=32;scalar=64";
    class       volScalarField;
    location    "1.2/electrolyte";
    object      T;
}
// * * * * * * * * * * * * * * * * * * * * * * * * * * * * * * * * * * * * * //

dimensions      [0 0 0 1 0 0 0];

internalField   nonuniform List<scalar> 
4000
(
1119.175
1119.036
1120.819
1119.182
1118.715
1120.808
1119.043
1122.346
1120.823
1119.189
1118.117
1120.78
1118.722
1122.371
1120.811
1119.05
1123.792
1122.347
1120.827
1119.195
1117.107
1120.723
1118.126
1122.425
1120.783
1118.73
1123.827
1122.371
1120.815
1119.057
1125.188
1123.789
1122.348
1120.83
1119.202
1115.616
1120.617
1117.121
1122.517
1120.724
1118.135
1123.907
1122.424
1120.785
1118.737
1125.227
1123.825
1122.371
1120.818
1119.064
1126.543
1125.183
1123.787
1122.348
1120.834
1113.915
1120.43
1115.642
1122.66
1120.616
1117.135
1124.049
1122.515
1120.726
1118.144
1125.314
1123.904
1122.424
1120.788
1118.745
1126.582
1125.222
1123.822
1122.371
1120.821
1127.857
1126.536
1125.178
1123.784
1122.348
1112.357
1120.13
1113.959
1122.835
1120.425
1115.669
1124.273
1122.654
1120.614
1117.15
1125.47
1124.044
1122.513
1120.727
1118.154
1126.67
1125.309
1123.901
1122.423
1120.79
1127.894
1126.575
1125.217
1123.819
1122.371
1129.127
1127.848
1126.529
1125.173
1123.781
1111.199
1119.781
1112.417
1122.952
1120.125
1114.001
1124.569
1122.822
1120.42
1115.695
1125.717
1124.264
1122.647
1120.613
1117.165
1126.825
1125.462
1124.039
1122.51
1120.728
1127.979
1126.662
1125.303
1123.897
1122.422
1129.163
1127.885
1126.568
1125.211
1123.816
1130.352
1129.117
1127.839
1126.522
1125.168
1110.588
1119.48
1111.271
1122.995
1119.779
1112.475
1124.833
1122.936
1120.12
1114.043
1126.051
1124.554
1122.81
1120.415
1115.721
1127.074
1125.707
1124.255
1122.641
1120.611
1128.13
1126.816
1125.455
1124.033
1122.507
1129.243
1127.969
1126.654
1125.296
1123.893
1130.386
1129.152
1127.876
1126.56
1125.205
1131.531
1130.341
1129.107
1127.83
1126.514
1110.588
1119.308
1110.666
1122.993
1119.482
1111.341
1125.021
1122.978
1119.777
1112.533
1126.365
1124.813
1122.919
1120.114
1114.085
1127.412
1126.034
1124.538
1122.797
1120.41
1128.371
1127.062
1125.695
1124.245
1122.634
1129.387
1128.119
1126.807
1125.447
1124.027
1130.463
1129.233
1127.96
1126.646
1125.29
1131.564
1130.375
1129.142
1127.867
1126.552
1132.665
1131.52
1130.33
1129.096
1127.821
1111.199
1119.308
1110.666
1122.982
1119.312
1110.742
1125.132
1122.976
1119.483
1111.41
1126.605
1124.998
1122.96
1119.774
1112.589
1127.737
1126.343
1124.793
1122.903
1120.109
1128.699
1127.395
1126.017
1124.522
1122.785
1129.618
1128.358
1127.05
1125.684
1124.235
1130.6
1129.376
1128.108
1126.797
1125.439
1131.637
1130.451
1129.222
1127.95
1126.637
1132.695
1131.552
1130.364
1129.132
1127.858
1133.751
1132.652
1131.508
1130.319
1129.086
1112.357
1119.48
1111.271
1122.982
1119.312
1110.742
1125.183
1122.965
1119.315
1110.817
1126.759
1125.109
1122.959
1119.483
1111.477
1127.99
1126.58
1124.975
1122.943
1119.771
1129.017
1127.714
1126.321
1124.772
1122.886
1129.932
1128.681
1127.376
1126
1124.506
1130.819
1129.604
1128.344
1127.037
1125.672
1131.767
1130.587
1129.364
1128.097
1126.787
1132.765
1131.625
1130.44
1129.211
1127.94
1133.781
1132.683
1131.54
1130.352
1129.121
1134.791
1133.738
1132.64
1131.496
1130.307
1113.915
1119.781
1112.417
1122.993
1119.482
1111.341
1125.183
1122.965
1119.315
1110.817
1126.834
1125.159
1122.948
1119.318
1110.89
1128.158
1126.733
1125.085
1122.941
1119.483
1129.269
1127.965
1126.555
1124.952
1122.925
1130.237
1128.995
1127.692
1126.299
1124.752
1131.117
1129.913
1128.662
1127.358
1125.982
1131.975
1130.804
1129.589
1128.33
1127.023
1132.889
1131.754
1130.574
1129.351
1128.086
1133.847
1132.752
1131.612
1130.428
1129.2
1134.82
1133.768
1132.67
1131.528
1130.341
1135.786
1134.778
1133.726
1132.627
1131.484
1115.616
1120.13
1113.959
1122.995
1119.779
1112.475
1125.132
1122.976
1119.483
1111.41
1126.834
1125.159
1122.948
1119.318
1110.89
1128.241
1126.807
1125.135
1122.931
1119.32
1129.438
1128.132
1126.707
1125.061
1122.924
1130.481
1129.244
1127.94
1126.531
1124.929
1131.409
1130.215
1128.972
1127.669
1126.277
1132.259
1131.099
1129.894
1128.644
1127.34
1133.087
1131.96
1130.789
1129.575
1128.316
1133.965
1132.875
1131.741
1130.561
1129.339
1134.883
1133.834
1132.739
1131.599
1130.415
1135.813
1134.807
1133.755
1132.658
1131.515
1136.735
1135.773
1134.765
1133.713
1132.615
1117.107
1120.43
1115.642
1122.952
1120.125
1114.001
1125.021
1122.978
1119.777
1112.533
1126.759
1125.109
1122.959
1119.483
1111.477
1128.241
1126.807
1125.135
1122.931
1119.32
1129.521
1128.214
1126.781
1125.111
1122.914
1130.645
1129.412
1128.106
1126.681
1125.037
1131.642
1130.457
1129.22
1127.915
1126.506
1132.537
1131.387
1130.193
1128.95
1127.647
1133.357
1132.24
1131.08
1129.876
1128.625
1134.155
1133.072
1131.945
1130.774
1129.56
1134.996
1133.952
1132.862
1131.727
1130.548
1135.874
1134.87
1133.82
1132.726
1131.587
1136.761
1135.8
1134.793
1133.742
1132.645
1137.639
1136.722
1135.759
1134.752
1133.7
1118.117
1120.617
1117.121
1122.835
1120.425
1115.669
1124.833
1122.936
1120.12
1114.043
1126.605
1124.998
1122.96
1119.774
1112.589
1128.158
1126.733
1125.085
1122.941
1119.483
1129.521
1128.214
1126.781
1125.111
1122.914
1130.727
1129.495
1128.188
1126.754
1125.087
1131.8
1130.62
1129.386
1128.08
1126.655
1132.76
1131.619
1130.433
1129.195
1127.89
1133.622
1132.515
1131.365
1130.171
1128.928
1134.412
1133.339
1132.222
1131.061
1129.857
1135.178
1134.139
1133.056
1131.929
1130.759
1135.983
1134.982
1133.937
1132.848
1131.713
1136.819
1135.86
1134.856
1133.807
1132.713
1137.664
1136.747
1135.786
1134.78
1133.728
1138.5
1137.626
1136.708
1135.746
1134.739
1118.715
1120.723
1118.126
1122.66
1120.616
1117.135
1124.569
1122.822
1120.42
1115.695
1126.365
1124.813
1122.919
1120.114
1114.085
1127.99
1126.58
1124.975
1122.943
1119.771
1129.438
1128.132
1126.707
1125.061
1122.924
1130.727
1129.495
1128.188
1126.754
1125.087
1131.879
1130.701
1129.469
1128.161
1126.728
1132.911
1131.776
1130.595
1129.36
1128.053
1133.835
1132.737
1131.595
1130.408
1129.17
1134.666
1133.601
1132.494
1131.344
1130.149
1135.424
1134.394
1133.32
1132.203
1131.042
1136.156
1135.162
1134.124
1133.041
1131.914
1136.924
1135.968
1134.968
1133.923
1132.833
1137.721
1136.806
1135.847
1134.843
1133.793
1138.524
1137.651
1136.734
1135.773
1134.767
1139.317
1138.486
1137.613
1136.695
1135.733
1119.036
1120.78
1118.722
1122.517
1120.724
1118.135
1124.273
1122.654
1120.614
1117.15
1126.051
1124.554
1122.81
1120.415
1115.721
1127.737
1126.343
1124.793
1122.903
1120.109
1129.269
1127.965
1126.555
1124.952
1122.925
1130.645
1129.412
1128.106
1126.681
1125.037
1131.879
1130.701
1129.469
1128.161
1126.728
1132.986
1131.854
1130.675
1129.442
1128.134
1133.98
1132.887
1131.751
1130.569
1129.334
1134.87
1133.813
1132.714
1131.572
1130.384
1135.667
1134.645
1133.581
1132.473
1131.322
1136.393
1135.406
1134.376
1133.302
1132.184
1137.091
1136.141
1135.147
1134.108
1133.025
1137.822
1136.91
1135.954
1134.954
1133.909
1138.578
1137.707
1136.792
1135.833
1134.829
1139.34
1138.511
1137.638
1136.721
1135.759
1140.092
1139.304
1138.473
1137.599
1136.681
1119.175
1120.808
1119.043
1122.425
1120.783
1118.73
1124.049
1122.515
1120.726
1118.144
1125.717
1124.264
1122.647
1120.613
1117.165
1127.412
1126.034
1124.538
1122.797
1120.41
1129.017
1127.714
1126.321
1124.772
1122.886
1130.481
1129.244
1127.94
1126.531
1124.929
1131.8
1130.62
1129.386
1128.08
1126.655
1132.986
1131.854
1130.675
1129.442
1128.134
1134.052
1132.962
1131.829
1130.65
1129.416
1135.009
1133.957
1132.863
1131.727
1130.544
1135.863
1134.848
1133.791
1132.691
1131.548
1136.626
1135.647
1134.625
1133.56
1132.452
1137.319
1136.376
1135.389
1134.358
1133.283
1137.983
1137.076
1136.126
1135.131
1134.092
1138.676
1137.808
1136.896
1135.94
1134.939
1139.393
1138.565
1137.694
1136.778
1135.819
1140.115
1139.327
1138.497
1137.624
1136.707
1140.826
1140.079
1139.291
1138.46
1137.586
1120.819
1119.182
1122.371
1120.811
1119.05
1123.907
1122.424
1120.785
1118.737
1125.47
1124.044
1122.513
1120.727
1118.154
1127.074
1125.707
1124.255
1122.641
1120.611
1128.699
1127.395
1126.017
1124.522
1122.785
1130.237
1128.995
1127.692
1126.299
1124.752
1131.642
1130.457
1129.22
1127.915
1126.506
1132.911
1131.776
1130.595
1129.36
1128.053
1134.052
1132.962
1131.829
1130.65
1129.416
1135.078
1134.029
1132.938
1131.804
1130.624
1135.996
1134.986
1133.934
1132.84
1131.702
1136.815
1135.842
1134.827
1133.769
1132.668
1137.544
1136.607
1135.628
1134.605
1133.539
1138.203
1137.302
1136.358
1135.371
1134.339
1138.832
1137.968
1137.061
1136.11
1135.115
1139.488
1138.662
1137.794
1136.882
1135.925
1140.166
1139.38
1138.552
1137.68
1136.765
1140.848
1140.102
1139.314
1138.484
1137.611
1141.519
1140.813
1140.066
1139.278
1138.447
1122.346
1120.823
1119.189
1123.827
1122.371
1120.815
1119.057
1125.314
1123.904
1122.424
1120.788
1118.745
1126.825
1125.462
1124.039
1122.51
1120.728
1128.371
1127.062
1125.695
1124.245
1122.634
1129.932
1128.681
1127.376
1126
1124.506
1131.409
1130.215
1128.972
1127.669
1126.277
1132.76
1131.619
1130.433
1129.195
1127.89
1133.98
1132.887
1131.751
1130.569
1129.334
1135.078
1134.029
1132.938
1131.804
1130.624
1136.063
1135.056
1134.006
1132.914
1131.779
1136.943
1135.975
1134.964
1133.911
1132.816
1137.726
1136.795
1135.821
1134.805
1133.747
1138.419
1137.525
1136.588
1135.608
1134.585
1139.044
1138.186
1137.285
1136.34
1135.353
1139.639
1138.817
1137.953
1137.045
1136.094
1140.258
1139.474
1138.648
1137.779
1136.867
1140.898
1140.153
1139.367
1138.538
1137.666
1141.541
1140.835
1140.089
1139.301
1138.47
1142.172
1141.507
1140.8
1140.053
1139.265
1123.792
1122.347
1120.827
1119.195
1125.227
1123.825
1122.371
1120.818
1119.064
1126.67
1125.309
1123.901
1122.423
1120.79
1128.13
1126.816
1125.455
1124.033
1122.507
1129.618
1128.358
1127.05
1125.684
1124.235
1131.117
1129.913
1128.662
1127.358
1125.982
1132.537
1131.387
1130.193
1128.95
1127.647
1133.835
1132.737
1131.595
1130.408
1129.17
1135.009
1133.957
1132.863
1131.727
1130.544
1136.063
1135.056
1134.006
1132.914
1131.779
1137.008
1136.041
1135.033
1133.983
1132.89
1137.849
1136.922
1135.953
1134.942
1133.888
1138.595
1137.706
1136.774
1135.8
1134.784
1139.254
1138.401
1137.506
1136.569
1135.588
1139.844
1139.028
1138.169
1137.267
1136.323
1140.404
1139.624
1138.802
1137.938
1137.03
1140.987
1140.244
1139.46
1138.634
1137.765
1141.589
1140.885
1140.14
1139.353
1138.524
1142.193
1141.528
1140.822
1140.076
1139.288
1142.786
1142.16
1141.494
1140.788
1140.04
1125.188
1123.789
1122.348
1120.83
1119.202
1126.582
1125.222
1123.822
1122.371
1120.821
1127.979
1126.662
1125.303
1123.897
1122.422
1129.387
1128.119
1126.807
1125.447
1124.027
1130.819
1129.604
1128.344
1127.037
1125.672
1132.259
1131.099
1129.894
1128.644
1127.34
1133.622
1132.515
1131.365
1130.171
1128.928
1134.87
1133.813
1132.714
1131.572
1130.384
1135.996
1134.986
1133.934
1132.84
1131.702
1137.008
1136.041
1135.033
1133.983
1132.89
1137.912
1136.987
1136.02
1135.011
1133.96
1138.715
1137.829
1136.902
1135.932
1134.92
1139.424
1138.576
1137.686
1136.754
1135.78
1140.047
1139.236
1138.383
1137.487
1136.549
1140.604
1139.828
1139.011
1138.152
1137.25
1141.129
1140.39
1139.609
1138.787
1137.922
1141.676
1140.974
1140.231
1139.446
1138.62
1142.24
1141.576
1140.872
1140.127
1139.34
1142.807
1142.181
1141.515
1140.809
1140.063
1143.362
1142.774
1142.148
1141.481
1140.775
1126.543
1125.183
1123.787
1122.348
1120.834
1127.894
1126.575
1125.217
1123.819
1122.371
1129.243
1127.969
1126.654
1125.296
1123.893
1130.6
1129.376
1128.108
1126.797
1125.439
1131.975
1130.804
1129.589
1128.33
1127.023
1133.357
1132.24
1131.08
1129.876
1128.625
1134.666
1133.601
1132.494
1131.344
1130.149
1135.863
1134.848
1133.791
1132.691
1131.548
1136.943
1135.975
1134.964
1133.911
1132.816
1137.912
1136.987
1136.02
1135.011
1133.96
1138.775
1137.891
1136.966
1135.998
1134.988
1139.54
1138.695
1137.809
1136.881
1135.911
1140.213
1139.405
1138.557
1137.666
1136.734
1140.801
1140.03
1139.218
1138.365
1137.469
1141.323
1140.588
1139.812
1138.994
1138.135
1141.814
1141.115
1140.375
1139.595
1138.772
1142.325
1141.663
1140.96
1140.217
1139.432
1142.853
1142.228
1141.563
1140.859
1140.113
1143.382
1142.795
1142.168
1141.503
1140.796
1143.9
1143.35
1142.762
1142.135
1141.469
1127.857
1126.536
1125.178
1123.784
1122.348
1129.163
1127.885
1126.568
1125.211
1123.816
1130.463
1129.233
1127.96
1126.646
1125.29
1131.767
1130.587
1129.364
1128.097
1126.787
1133.087
1131.96
1130.789
1129.575
1128.316
1134.412
1133.339
1132.222
1131.061
1129.857
1135.667
1134.645
1133.581
1132.473
1131.322
1136.815
1135.842
1134.827
1133.769
1132.668
1137.849
1136.922
1135.953
1134.942
1133.888
1138.775
1137.891
1136.966
1135.998
1134.988
1139.599
1138.755
1137.871
1136.945
1135.976
1140.325
1139.521
1138.676
1137.789
1136.86
1140.961
1140.194
1139.387
1138.538
1137.647
1141.515
1140.784
1140.013
1139.2
1138.346
1142.002
1141.307
1140.572
1139.796
1138.978
1142.46
1141.8
1141.101
1140.361
1139.58
1142.935
1142.312
1141.649
1140.947
1140.203
1143.427
1142.841
1142.215
1141.55
1140.845
1143.92
1143.37
1142.782
1142.156
1141.49
1144.401
1143.889
1143.338
1142.75
1142.123
1129.127
1127.848
1126.529
1125.173
1123.781
1130.386
1129.152
1127.876
1126.56
1125.205
1131.637
1130.451
1129.222
1127.95
1126.637
1132.889
1131.754
1130.574
1129.351
1128.086
1134.155
1133.072
1131.945
1130.774
1129.56
1135.424
1134.394
1133.32
1132.203
1131.042
1136.626
1135.647
1134.625
1133.56
1132.452
1137.726
1136.795
1135.821
1134.805
1133.747
1138.715
1137.829
1136.902
1135.932
1134.92
1139.599
1138.755
1137.871
1136.945
1135.976
1140.382
1139.579
1138.736
1137.851
1136.924
1141.071
1140.307
1139.502
1138.656
1137.769
1141.671
1140.944
1140.176
1139.368
1138.519
1142.189
1141.498
1140.767
1139.995
1139.183
1142.643
1141.987
1141.292
1140.556
1139.779
1143.067
1142.446
1141.786
1141.086
1140.346
1143.508
1142.923
1142.299
1141.636
1140.933
1143.964
1143.415
1142.828
1142.203
1141.537
1144.42
1143.908
1143.358
1142.77
1142.143
1144.866
1144.39
1143.877
1143.326
1142.738
1130.352
1129.117
1127.839
1126.522
1125.168
1131.564
1130.375
1129.142
1127.867
1126.552
1132.765
1131.625
1130.44
1129.211
1127.94
1133.965
1132.875
1131.741
1130.561
1129.339
1135.178
1134.139
1133.056
1131.929
1130.759
1136.393
1135.406
1134.376
1133.302
1132.184
1137.544
1136.607
1135.628
1134.605
1133.539
1138.595
1137.706
1136.774
1135.8
1134.784
1139.54
1138.695
1137.809
1136.881
1135.911
1140.382
1139.579
1138.736
1137.851
1136.924
1141.126
1140.363
1139.56
1138.716
1137.83
1141.778
1141.053
1140.289
1139.483
1138.637
1142.342
1141.654
1140.926
1140.158
1139.35
1142.826
1142.173
1141.482
1140.75
1139.978
1143.246
1142.629
1141.972
1141.276
1140.54
1143.636
1143.054
1142.432
1141.772
1141.072
1144.042
1143.495
1142.91
1142.286
1141.623
1144.463
1143.952
1143.403
1142.816
1142.19
1144.884
1144.409
1143.896
1143.346
1142.758
1145.294
1144.854
1144.378
1143.865
1143.314
1131.531
1130.341
1129.107
1127.83
1126.514
1132.695
1131.552
1130.364
1129.132
1127.858
1133.847
1132.752
1131.612
1130.428
1129.2
1134.996
1133.952
1132.862
1131.727
1130.548
1136.156
1135.162
1134.124
1133.041
1131.914
1137.319
1136.376
1135.389
1134.358
1133.283
1138.419
1137.525
1136.588
1135.608
1134.585
1139.424
1138.576
1137.686
1136.754
1135.78
1140.325
1139.521
1138.676
1137.789
1136.86
1141.126
1140.363
1139.56
1138.716
1137.83
1141.831
1141.108
1140.345
1139.541
1138.696
1142.446
1141.76
1141.035
1140.27
1139.464
1142.974
1142.325
1141.637
1140.909
1140.14
1143.424
1142.81
1142.157
1141.465
1140.733
1143.811
1143.232
1142.614
1141.957
1141.261
1144.168
1143.623
1143.04
1142.419
1141.758
1144.54
1144.03
1143.483
1142.897
1142.273
1144.927
1144.452
1143.94
1143.391
1142.803
1145.312
1144.873
1144.397
1143.884
1143.334
1145.687
1145.283
1144.843
1144.367
1143.853
1132.665
1131.52
1130.33
1129.096
1127.821
1133.781
1132.683
1131.54
1130.352
1129.121
1134.883
1133.834
1132.739
1131.599
1130.415
1135.983
1134.982
1133.937
1132.848
1131.713
1137.091
1136.141
1135.147
1134.108
1133.025
1138.203
1137.302
1136.358
1135.371
1134.339
1139.254
1138.401
1137.506
1136.569
1135.588
1140.213
1139.405
1138.557
1137.666
1136.734
1141.071
1140.307
1139.502
1138.656
1137.769
1141.831
1141.108
1140.345
1139.541
1138.696
1142.498
1141.814
1141.09
1140.326
1139.522
1143.076
1142.429
1141.743
1141.017
1140.252
1143.57
1142.958
1142.308
1141.62
1140.891
1143.986
1143.409
1142.794
1142.141
1141.449
1144.34
1143.797
1143.217
1142.599
1141.942
1144.664
1144.155
1143.61
1143.027
1142.405
1145.002
1144.528
1144.018
1143.47
1142.884
1145.354
1144.915
1144.44
1143.928
1143.378
1145.705
1145.301
1144.862
1144.385
1143.872
1146.045
1145.676
1145.272
1144.832
1144.355
1133.751
1132.652
1131.508
1130.319
1129.086
1134.82
1133.768
1132.67
1131.528
1130.341
1135.874
1134.87
1133.82
1132.726
1131.587
1136.924
1135.968
1134.968
1133.923
1132.833
1137.983
1137.076
1136.126
1135.131
1134.092
1139.044
1138.186
1137.285
1136.34
1135.353
1140.047
1139.236
1138.383
1137.487
1136.549
1140.961
1140.194
1139.387
1138.538
1137.647
1141.778
1141.053
1140.289
1139.483
1138.637
1142.498
1141.814
1141.09
1140.326
1139.522
1143.128
1142.481
1141.796
1141.072
1140.308
1143.669
1143.06
1142.412
1141.726
1141
1144.128
1143.554
1142.942
1142.292
1141.603
1144.51
1143.971
1143.394
1142.779
1142.125
1144.832
1144.326
1143.783
1143.203
1142.584
1145.123
1144.651
1144.143
1143.597
1143.013
1145.428
1144.99
1144.516
1144.006
1143.457
1145.746
1145.343
1144.904
1144.428
1143.916
1146.063
1145.694
1145.29
1144.85
1144.374
1146.369
1146.035
1145.665
1145.261
1144.82
1134.791
1133.738
1132.64
1131.496
1130.307
1135.813
1134.807
1133.755
1132.658
1131.515
1136.819
1135.86
1134.856
1133.807
1132.713
1137.822
1136.91
1135.954
1134.954
1133.909
1138.832
1137.968
1137.061
1136.11
1135.115
1139.844
1139.028
1138.169
1137.267
1136.323
1140.801
1140.03
1139.218
1138.365
1137.469
1141.671
1140.944
1140.176
1139.368
1138.519
1142.446
1141.76
1141.035
1140.27
1139.464
1143.128
1142.481
1141.796
1141.072
1140.308
1143.72
1143.111
1142.464
1141.779
1141.054
1144.226
1143.653
1143.043
1142.395
1141.708
1144.65
1144.113
1143.538
1142.926
1142.275
1144.999
1144.496
1143.956
1143.379
1142.763
1145.288
1144.818
1144.312
1143.769
1143.188
1145.547
1145.111
1144.639
1144.13
1143.583
1145.819
1145.417
1144.979
1144.504
1143.993
1146.103
1145.735
1145.331
1144.892
1144.416
1146.386
1146.052
1145.683
1145.279
1144.839
1146.658
1146.358
1146.024
1145.654
1145.249
1135.786
1134.778
1133.726
1132.627
1131.484
1136.761
1135.8
1134.793
1133.742
1132.645
1137.721
1136.806
1135.847
1134.843
1133.793
1138.676
1137.808
1136.896
1135.94
1134.939
1139.639
1138.817
1137.953
1137.045
1136.094
1140.604
1139.828
1139.011
1138.152
1137.25
1141.515
1140.784
1140.013
1139.2
1138.346
1142.342
1141.654
1140.926
1140.158
1139.35
1143.076
1142.429
1141.743
1141.017
1140.252
1143.72
1143.111
1142.464
1141.779
1141.054
1144.275
1143.703
1143.095
1142.447
1141.762
1144.746
1144.21
1143.637
1143.027
1142.378
1145.136
1144.635
1144.097
1143.522
1142.91
1145.452
1144.985
1144.481
1143.941
1143.363
1145.709
1145.275
1144.805
1144.298
1143.755
1145.936
1145.535
1145.098
1144.626
1144.117
1146.175
1145.808
1145.405
1144.967
1144.492
1146.426
1146.092
1145.724
1145.32
1144.88
1146.675
1146.376
1146.041
1145.672
1145.268
1146.914
1146.648
1146.348
1146.013
1145.643
