/*--------------------------------*- C++ -*----------------------------------*\
| =========                 |                                                 |
| \\      /  F ield         | OpenFOAM: The Open Source CFD Toolbox           |
|  \\    /   O peration     | Version:  2306                                  |
|   \\  /    A nd           | Website:  www.openfoam.com                      |
|    \\/     M anipulation  |                                                 |
\*---------------------------------------------------------------------------*/
FoamFile
{
    version     2.0;
    format      ascii;
    arch        "LSB;label=32;scalar=64";
    class       volScalarField;
    location    "0.6/electrolyte";
    object      T;
}
// * * * * * * * * * * * * * * * * * * * * * * * * * * * * * * * * * * * * * //

dimensions      [0 0 0 1 0 0 0];

internalField   nonuniform List<scalar> 
4000
(
1082.512
1082.394
1083.916
1082.515
1082.121
1083.907
1082.397
1085.23
1083.917
1082.518
1081.611
1083.884
1082.124
1085.252
1083.907
1082.4
1086.483
1085.229
1083.917
1082.521
1080.746
1083.836
1081.615
1085.299
1083.884
1082.128
1086.514
1085.25
1083.908
1082.403
1087.699
1086.478
1085.227
1083.918
1082.523
1079.468
1083.744
1080.755
1085.378
1083.834
1081.62
1086.583
1085.296
1083.883
1082.131
1087.733
1086.509
1085.247
1083.908
1082.406
1088.884
1087.692
1086.474
1085.224
1083.918
1078.009
1083.58
1079.487
1085.499
1083.74
1080.764
1086.705
1085.374
1083.833
1081.625
1087.809
1086.578
1085.293
1083.883
1082.135
1088.918
1087.726
1086.504
1085.245
1083.907
1090.037
1088.876
1087.686
1086.469
1085.222
1076.673
1083.318
1078.042
1085.645
1083.573
1079.506
1086.896
1085.491
1083.736
1080.773
1087.943
1086.698
1085.369
1083.831
1081.63
1088.994
1087.801
1086.572
1085.289
1083.882
1090.07
1088.91
1087.719
1086.499
1085.242
1091.156
1090.027
1088.867
1087.679
1086.464
1075.68
1083.014
1076.72
1085.74
1083.311
1078.075
1087.148
1085.632
1083.566
1079.524
1088.156
1086.886
1085.483
1083.732
1080.783
1089.13
1087.935
1086.691
1085.364
1083.829
1090.144
1088.985
1087.794
1086.567
1085.286
1091.188
1090.06
1088.901
1087.712
1086.494
1092.24
1091.146
1090.018
1088.859
1087.672
1075.156
1082.753
1075.737
1085.772
1083.009
1076.766
1087.371
1085.724
1083.303
1078.107
1088.443
1087.133
1085.619
1083.558
1079.543
1089.346
1088.145
1086.876
1085.475
1083.728
1090.276
1089.12
1087.926
1086.684
1085.359
1091.259
1090.134
1088.976
1087.786
1086.561
1092.271
1091.177
1090.051
1088.892
1087.705
1093.288
1092.229
1091.135
1090.008
1088.85
1075.156
1082.603
1075.218
1085.766
1082.751
1075.792
1087.528
1085.755
1083.004
1076.81
1088.71
1087.352
1085.708
1083.296
1078.138
1089.637
1088.426
1087.117
1085.606
1083.551
1090.487
1089.333
1088.133
1086.865
1085.467
1091.386
1090.265
1089.109
1087.916
1086.676
1092.339
1091.248
1090.124
1088.967
1087.778
1093.317
1092.259
1091.166
1090.041
1088.883
1094.298
1093.276
1092.217
1091.124
1089.998
1075.68
1082.603
1075.218
1085.754
1082.603
1075.279
1087.62
1085.749
1082.749
1075.846
1088.913
1087.506
1085.737
1082.999
1076.854
1089.916
1088.689
1087.332
1085.691
1083.288
1090.772
1089.62
1088.409
1087.101
1085.592
1091.588
1090.473
1089.32
1088.121
1086.855
1092.46
1091.374
1090.254
1089.099
1087.907
1093.382
1092.327
1091.237
1090.113
1088.958
1094.326
1093.305
1092.248
1091.155
1090.03
1095.27
1094.285
1093.264
1092.206
1091.113
1076.673
1082.753
1075.737
1085.754
1082.603
1075.279
1087.662
1085.737
1082.603
1075.338
1089.044
1087.598
1085.732
1082.746
1075.899
1090.134
1088.89
1087.484
1085.72
1082.993
1091.047
1089.895
1088.668
1087.312
1085.674
1091.863
1090.754
1089.602
1088.391
1087.085
1092.654
1091.574
1090.459
1089.306
1088.108
1093.498
1092.447
1091.362
1090.242
1089.088
1094.388
1093.37
1092.315
1091.225
1090.103
1095.297
1094.313
1093.292
1092.236
1091.144
1096.205
1095.258
1094.273
1093.252
1092.194
1078.009
1083.014
1076.72
1085.766
1082.751
1075.792
1087.662
1085.737
1082.603
1075.338
1089.107
1087.639
1085.72
1082.602
1075.395
1090.277
1089.019
1087.575
1085.714
1082.743
1091.265
1090.11
1088.867
1087.462
1085.702
1092.129
1091.026
1089.873
1088.647
1087.292
1092.916
1091.845
1090.736
1089.584
1088.374
1093.683
1092.639
1091.56
1090.445
1089.293
1094.499
1093.485
1092.434
1091.349
1090.23
1095.357
1094.375
1093.357
1092.303
1091.214
1096.231
1095.284
1094.301
1093.28
1092.224
1097.102
1096.192
1095.245
1094.26
1093.239
1079.468
1083.318
1078.042
1085.772
1083.009
1076.766
1087.62
1085.749
1082.749
1075.846
1089.107
1087.639
1085.72
1082.602
1075.395
1090.348
1089.082
1087.616
1085.703
1082.601
1091.41
1090.252
1088.995
1087.552
1085.697
1092.341
1091.242
1090.086
1088.843
1087.44
1093.172
1092.108
1091.005
1089.852
1088.626
1093.934
1092.898
1091.827
1090.718
1089.566
1094.677
1093.668
1092.624
1091.545
1090.431
1095.464
1094.486
1093.471
1092.421
1091.336
1096.289
1095.344
1094.362
1093.344
1092.29
1097.127
1096.218
1095.271
1094.288
1093.268
1097.962
1097.089
1096.179
1095.232
1094.248
1080.746
1083.58
1079.487
1085.74
1083.311
1078.075
1087.528
1085.755
1083.004
1076.81
1089.044
1087.598
1085.732
1082.746
1075.899
1090.348
1089.082
1087.616
1085.703
1082.601
1091.482
1090.322
1089.057
1087.593
1085.686
1092.484
1091.386
1090.228
1088.971
1087.529
1093.377
1092.318
1091.218
1090.063
1088.82
1094.18
1093.152
1092.087
1090.983
1089.83
1094.918
1093.917
1092.88
1091.808
1090.7
1095.635
1094.662
1093.653
1092.609
1091.53
1096.392
1095.45
1094.472
1093.458
1092.408
1097.183
1096.275
1095.331
1094.349
1093.331
1097.986
1097.114
1096.205
1095.258
1094.275
1098.784
1097.949
1097.076
1096.166
1095.219
1081.611
1083.744
1080.755
1085.645
1083.573
1079.506
1087.371
1085.724
1083.303
1078.107
1088.913
1087.506
1085.737
1082.999
1076.854
1090.277
1089.019
1087.575
1085.714
1082.743
1091.482
1090.322
1089.057
1087.593
1085.686
1092.555
1091.457
1090.297
1089.032
1087.57
1093.515
1092.46
1091.361
1090.203
1088.946
1094.377
1093.355
1092.296
1091.195
1090.039
1095.154
1094.16
1093.131
1092.066
1090.962
1095.866
1094.9
1093.899
1092.862
1091.79
1096.556
1095.62
1094.647
1093.638
1092.594
1097.283
1096.378
1095.437
1094.458
1093.444
1098.04
1097.17
1096.262
1095.318
1094.336
1098.808
1097.973
1097.101
1096.192
1095.245
1099.57
1098.771
1097.936
1097.063
1096.153
1082.121
1083.836
1081.615
1085.499
1083.74
1080.764
1087.148
1085.632
1083.566
1079.524
1088.71
1087.352
1085.708
1083.296
1078.138
1090.134
1088.89
1087.484
1085.72
1082.993
1091.41
1090.252
1088.995
1087.552
1085.697
1092.555
1091.457
1090.297
1089.032
1087.57
1093.584
1092.531
1091.433
1090.272
1089.007
1094.51
1093.492
1092.436
1091.337
1090.178
1095.343
1094.355
1093.332
1092.273
1091.172
1096.093
1095.134
1094.14
1093.11
1092.045
1096.779
1095.849
1094.882
1093.881
1092.844
1097.441
1096.541
1095.604
1094.631
1093.622
1098.137
1097.269
1096.364
1095.423
1094.444
1098.86
1098.027
1097.156
1096.249
1095.304
1099.593
1098.795
1097.96
1097.088
1096.178
1100.32
1099.557
1098.758
1097.923
1097.05
1082.394
1083.884
1082.124
1085.378
1083.834
1081.62
1086.896
1085.491
1083.736
1080.773
1088.443
1087.133
1085.619
1083.558
1079.543
1089.916
1088.689
1087.332
1085.691
1083.288
1091.265
1090.11
1088.867
1087.462
1085.702
1092.484
1091.386
1090.228
1088.971
1087.529
1093.584
1092.531
1091.433
1090.272
1089.007
1094.576
1093.56
1092.506
1091.408
1090.247
1095.472
1094.488
1093.469
1092.413
1091.313
1096.276
1095.322
1094.334
1093.31
1092.25
1096.999
1096.074
1095.114
1094.119
1093.09
1097.657
1096.762
1095.831
1094.865
1093.862
1098.291
1097.427
1096.526
1095.589
1094.616
1098.954
1098.123
1097.255
1096.35
1095.408
1099.644
1098.847
1098.013
1097.143
1096.235
1100.342
1099.58
1098.781
1097.946
1097.074
1101.033
1100.307
1099.544
1098.745
1097.909
1082.512
1083.907
1082.397
1085.299
1083.884
1082.128
1086.705
1085.374
1083.833
1081.625
1088.156
1086.886
1085.483
1083.732
1080.783
1089.637
1088.426
1087.117
1085.606
1083.551
1091.047
1089.895
1088.668
1087.312
1085.674
1092.341
1091.242
1090.086
1088.843
1087.44
1093.515
1092.46
1091.361
1090.203
1088.946
1094.576
1093.56
1092.506
1091.408
1090.247
1095.536
1094.554
1093.537
1092.482
1091.383
1096.4
1095.45
1094.465
1093.446
1092.389
1097.175
1096.256
1095.301
1094.312
1093.288
1097.87
1096.98
1096.055
1095.094
1094.099
1098.5
1097.64
1096.745
1095.814
1094.847
1099.104
1098.276
1097.412
1096.511
1095.573
1099.735
1098.94
1098.109
1097.241
1096.336
1100.392
1099.631
1098.834
1098
1097.129
1101.055
1100.329
1099.567
1098.768
1097.933
1101.712
1101.021
1100.294
1099.531
1098.732
1083.916
1082.515
1085.252
1083.907
1082.4
1086.583
1085.296
1083.883
1082.131
1087.943
1086.698
1085.369
1083.831
1081.63
1089.346
1088.145
1086.876
1085.475
1083.728
1090.772
1089.62
1088.409
1087.101
1085.592
1092.129
1091.026
1089.873
1088.647
1087.292
1093.377
1092.318
1091.218
1090.063
1088.82
1094.51
1093.492
1092.436
1091.337
1090.178
1095.536
1094.554
1093.537
1092.482
1091.383
1096.462
1095.514
1094.531
1093.513
1092.458
1097.296
1096.379
1095.428
1094.443
1093.423
1098.041
1097.156
1096.235
1095.28
1094.29
1098.706
1097.851
1096.961
1096.035
1095.075
1099.307
1098.483
1097.624
1096.728
1095.796
1099.881
1099.089
1098.261
1097.396
1096.495
1100.481
1099.722
1098.927
1098.095
1097.227
1101.104
1100.379
1099.618
1098.82
1097.986
1101.733
1101.042
1100.316
1099.554
1098.755
1102.355
1101.699
1101.008
1100.281
1099.518
1085.23
1083.917
1082.518
1086.514
1085.25
1083.908
1082.403
1087.809
1086.578
1085.293
1083.883
1082.135
1089.13
1087.935
1086.691
1085.364
1083.829
1090.487
1089.333
1088.133
1086.865
1085.467
1091.863
1090.754
1089.602
1088.391
1087.085
1093.172
1092.108
1091.005
1089.852
1088.626
1094.377
1093.355
1092.296
1091.195
1090.039
1095.472
1094.488
1093.469
1092.413
1091.313
1096.462
1095.514
1094.531
1093.513
1092.458
1097.356
1096.441
1095.492
1094.508
1093.49
1098.157
1097.275
1096.358
1095.407
1094.421
1098.872
1098.022
1097.136
1096.215
1095.259
1099.507
1098.688
1097.833
1096.942
1096.016
1100.079
1099.291
1098.467
1097.607
1096.71
1100.623
1099.867
1099.074
1098.246
1097.381
1101.191
1100.468
1099.708
1098.913
1098.081
1101.781
1101.091
1100.366
1099.604
1098.807
1102.376
1101.721
1101.03
1100.303
1099.541
1102.965
1102.343
1101.687
1100.995
1100.268
1086.483
1085.229
1083.917
1082.521
1087.733
1086.509
1085.247
1083.908
1082.406
1088.994
1087.801
1086.572
1085.289
1083.882
1090.276
1089.12
1087.926
1086.684
1085.359
1091.588
1090.473
1089.32
1088.121
1086.855
1092.916
1091.845
1090.736
1089.584
1088.374
1094.18
1093.152
1092.087
1090.983
1089.83
1095.343
1094.355
1093.332
1092.273
1091.172
1096.4
1095.45
1094.465
1093.446
1092.389
1097.356
1096.441
1095.492
1094.508
1093.49
1098.216
1097.335
1096.42
1095.47
1094.486
1098.986
1098.138
1097.255
1096.337
1095.385
1099.67
1098.854
1098.002
1097.116
1096.195
1100.275
1099.49
1098.67
1097.814
1096.923
1100.816
1100.063
1099.274
1098.45
1097.589
1101.33
1100.609
1099.852
1099.06
1098.231
1101.866
1101.178
1100.454
1099.694
1098.899
1102.423
1101.768
1101.078
1100.353
1099.591
1102.985
1102.364
1101.708
1101.017
1100.29
1103.54
1102.953
1102.331
1101.674
1100.983
1087.699
1086.478
1085.227
1083.918
1082.523
1088.918
1087.726
1086.504
1085.245
1083.907
1090.144
1088.985
1087.794
1086.567
1085.286
1091.386
1090.265
1089.109
1087.916
1086.676
1092.654
1091.574
1090.459
1089.306
1088.108
1093.934
1092.898
1091.827
1090.718
1089.566
1095.154
1094.16
1093.131
1092.066
1090.962
1096.276
1095.322
1094.334
1093.31
1092.25
1097.296
1096.379
1095.428
1094.443
1093.423
1098.216
1097.335
1096.42
1095.47
1094.486
1099.042
1098.196
1097.315
1096.399
1095.448
1099.78
1098.966
1098.118
1097.235
1096.316
1100.433
1099.651
1098.835
1097.983
1097.096
1101.007
1100.257
1099.472
1098.652
1097.796
1101.519
1100.801
1100.047
1099.258
1098.433
1102.002
1101.316
1100.595
1099.838
1099.045
1102.507
1101.853
1101.165
1100.441
1099.681
1103.031
1102.411
1101.756
1101.065
1100.339
1103.56
1102.973
1102.352
1101.695
1101.004
1104.081
1103.528
1102.941
1102.319
1101.662
1088.884
1087.692
1086.474
1085.224
1083.918
1090.07
1088.91
1087.719
1086.499
1085.242
1091.259
1090.134
1088.976
1087.786
1086.561
1092.46
1091.374
1090.254
1089.099
1087.907
1093.683
1092.639
1091.56
1090.445
1089.293
1094.918
1093.917
1092.88
1091.808
1090.7
1096.093
1095.134
1094.14
1093.11
1092.045
1097.175
1096.256
1095.301
1094.312
1093.288
1098.157
1097.275
1096.358
1095.407
1094.421
1099.042
1098.196
1097.315
1096.399
1095.448
1099.836
1099.023
1098.176
1097.294
1096.377
1100.541
1099.761
1098.947
1098.098
1097.214
1101.162
1100.415
1099.633
1098.816
1097.964
1101.706
1100.991
1100.24
1099.455
1098.634
1102.188
1101.504
1100.785
1100.031
1099.242
1102.64
1101.989
1101.302
1100.58
1099.823
1103.113
1102.494
1101.84
1101.151
1100.427
1103.605
1103.019
1102.398
1101.743
1101.052
1104.101
1103.548
1102.961
1102.339
1101.683
1104.59
1104.07
1103.516
1102.928
1102.306
1090.037
1088.876
1087.686
1086.469
1085.222
1091.188
1090.06
1088.901
1087.712
1086.494
1092.339
1091.248
1090.124
1088.967
1087.778
1093.498
1092.447
1091.362
1090.242
1089.088
1094.677
1093.668
1092.624
1091.545
1090.431
1095.866
1094.9
1093.899
1092.862
1091.79
1096.999
1096.074
1095.114
1094.119
1093.09
1098.041
1097.156
1096.235
1095.28
1094.29
1098.986
1098.138
1097.255
1096.337
1095.385
1099.836
1099.023
1098.176
1097.294
1096.377
1100.595
1099.817
1099.004
1098.156
1097.274
1101.268
1100.523
1099.743
1098.928
1098.079
1101.858
1101.145
1100.397
1099.615
1098.797
1102.371
1101.69
1100.974
1100.223
1099.437
1102.822
1102.173
1101.489
1100.77
1100.015
1103.245
1102.627
1101.975
1101.288
1100.566
1103.686
1103.101
1102.481
1101.827
1101.138
1104.146
1103.593
1103.007
1102.386
1101.73
1104.609
1104.09
1103.536
1102.949
1102.327
1105.065
1104.578
1104.058
1103.504
1102.916
1091.156
1090.027
1088.867
1087.679
1086.464
1092.271
1091.177
1090.051
1088.892
1087.705
1093.382
1092.327
1091.237
1090.113
1088.958
1094.499
1093.485
1092.434
1091.349
1090.23
1095.635
1094.662
1093.653
1092.609
1091.53
1096.779
1095.849
1094.882
1093.881
1092.844
1097.87
1096.98
1096.055
1095.094
1094.099
1098.872
1098.022
1097.136
1096.215
1095.259
1099.78
1098.966
1098.118
1097.235
1096.316
1100.595
1099.817
1099.004
1098.156
1097.274
1101.321
1100.577
1099.798
1098.985
1098.136
1101.961
1101.25
1100.505
1099.724
1098.909
1102.52
1101.841
1101.127
1100.38
1099.597
1103.002
1102.355
1101.673
1100.957
1100.206
1103.423
1102.808
1102.158
1101.473
1100.754
1103.815
1103.231
1102.613
1101.961
1101.274
1104.226
1103.674
1103.088
1102.468
1101.814
1104.653
1104.134
1103.581
1102.994
1102.373
1105.084
1104.598
1104.078
1103.524
1102.936
1105.508
1105.054
1104.567
1104.046
1103.492
1092.24
1091.146
1090.018
1088.859
1087.672
1093.317
1092.259
1091.166
1090.041
1088.883
1094.388
1093.37
1092.315
1091.225
1090.103
1095.464
1094.486
1093.471
1092.421
1091.336
1096.556
1095.62
1094.647
1093.638
1092.594
1097.657
1096.762
1095.831
1094.865
1093.862
1098.706
1097.851
1096.961
1096.035
1095.075
1099.67
1098.854
1098.002
1097.116
1096.195
1100.541
1099.761
1098.947
1098.098
1097.214
1101.321
1100.577
1099.798
1098.985
1098.136
1102.013
1101.303
1100.558
1099.779
1098.965
1102.621
1101.944
1101.233
1100.487
1099.706
1103.148
1102.503
1101.824
1101.11
1100.362
1103.6
1102.987
1102.339
1101.657
1100.941
1103.991
1103.409
1102.793
1102.143
1101.458
1104.353
1103.802
1103.218
1102.6
1101.947
1104.732
1104.213
1103.661
1103.075
1102.455
1105.128
1104.642
1104.122
1103.569
1102.982
1105.527
1105.073
1104.586
1104.066
1103.512
1105.918
1105.497
1105.043
1104.555
1104.035
1093.288
1092.229
1091.135
1090.008
1088.85
1094.326
1093.305
1092.248
1091.155
1090.03
1095.357
1094.375
1093.357
1092.303
1091.214
1096.392
1095.45
1094.472
1093.458
1092.408
1097.441
1096.541
1095.604
1094.631
1093.622
1098.5
1097.64
1096.745
1095.814
1094.847
1099.507
1098.688
1097.833
1096.942
1096.016
1100.433
1099.651
1098.835
1097.983
1097.096
1101.268
1100.523
1099.743
1098.928
1098.079
1102.013
1101.303
1100.558
1099.779
1098.965
1102.673
1101.996
1101.285
1100.54
1099.761
1103.249
1102.605
1101.927
1101.215
1100.469
1103.744
1103.132
1102.487
1101.807
1101.093
1104.165
1103.585
1102.971
1102.323
1101.641
1104.526
1103.977
1103.395
1102.778
1102.128
1104.857
1104.34
1103.789
1103.205
1102.586
1105.205
1104.72
1104.201
1103.649
1103.063
1105.57
1105.116
1104.63
1104.11
1103.557
1105.937
1105.516
1105.062
1104.575
1104.054
1106.297
1105.907
1105.486
1105.031
1104.544
1094.298
1093.276
1092.217
1091.124
1089.998
1095.297
1094.313
1093.292
1092.236
1091.144
1096.289
1095.344
1094.362
1093.344
1092.29
1097.283
1096.378
1095.437
1094.458
1093.444
1098.291
1097.427
1096.526
1095.589
1094.616
1099.307
1098.483
1097.624
1096.728
1095.796
1100.275
1099.49
1098.67
1097.814
1096.923
1101.162
1100.415
1099.633
1098.816
1097.964
1101.961
1101.25
1100.505
1099.724
1098.909
1102.673
1101.996
1101.285
1100.54
1099.761
1103.299
1102.656
1101.979
1101.268
1100.522
1103.843
1103.232
1102.588
1101.91
1101.197
1104.307
1103.729
1103.116
1102.47
1101.79
1104.698
1104.151
1103.57
1102.956
1102.307
1105.028
1104.512
1103.963
1103.38
1102.763
1105.329
1104.845
1104.327
1103.776
1103.191
1105.647
1105.194
1104.708
1104.189
1103.636
1105.98
1105.559
1105.105
1104.618
1104.098
1106.315
1105.926
1105.505
1105.05
1104.563
1106.643
1106.286
1105.897
1105.475
1105.02
1095.27
1094.285
1093.264
1092.206
1091.113
1096.231
1095.284
1094.301
1093.28
1092.224
1097.183
1096.275
1095.331
1094.349
1093.331
1098.137
1097.269
1096.364
1095.423
1094.444
1099.104
1098.276
1097.412
1096.511
1095.573
1100.079
1099.291
1098.467
1097.607
1096.71
1101.007
1100.257
1099.472
1098.652
1097.796
1101.858
1101.145
1100.397
1099.615
1098.797
1102.621
1101.944
1101.233
1100.487
1099.706
1103.299
1102.656
1101.979
1101.268
1100.522
1103.893
1103.283
1102.639
1101.962
1101.25
1104.405
1103.827
1103.216
1102.571
1101.893
1104.838
1104.292
1103.713
1103.1
1102.454
1105.198
1104.683
1104.136
1103.555
1102.94
1105.498
1105.015
1104.498
1103.949
1103.366
1105.769
1105.317
1104.832
1104.314
1103.763
1106.056
1105.635
1105.182
1104.696
1104.176
1106.357
1105.969
1105.547
1105.093
1104.606
1106.661
1106.304
1105.915
1105.493
1105.039
1106.957
1106.632
1106.275
1105.886
1105.463
1096.205
1095.258
1094.273
1093.252
1092.194
1097.127
1096.218
1095.271
1094.288
1093.268
1098.04
1097.17
1096.262
1095.318
1094.336
1098.954
1098.123
1097.255
1096.35
1095.408
1099.881
1099.089
1098.261
1097.396
1096.495
1100.816
1100.063
1099.274
1098.45
1097.589
1101.706
1100.991
1100.24
1099.455
1098.634
1102.52
1101.841
1101.127
1100.38
1099.597
1103.249
1102.605
1101.927
1101.215
1100.469
1103.893
1103.283
1102.639
1101.962
1101.25
1104.454
1103.877
1103.266
1102.622
1101.944
1104.934
1104.389
1103.811
1103.2
1102.555
1105.337
1104.823
1104.277
1103.697
1103.084
1105.666
1105.184
1104.669
1104.121
1103.54
1105.936
1105.485
1105.001
1104.485
1103.935
1106.177
1105.757
1105.305
1104.82
1104.301
1106.433
1106.044
1105.624
1105.17
1104.684
1106.703
1106.346
1105.957
1105.536
1105.082
1106.976
1106.651
1106.294
1105.904
1105.482
1107.24
1106.947
1106.622
1106.264
1105.875
1097.102
1096.192
1095.245
1094.26
1093.239
1097.986
1097.114
1096.205
1095.258
1094.275
1098.86
1098.027
1097.156
1096.249
1095.304
1099.735
1098.94
1098.109
1097.241
1096.336
1100.623
1099.867
1099.074
1098.246
1097.381
1101.519
1100.801
1100.047
1099.258
1098.433
1102.371
1101.69
1100.974
1100.223
1099.437
1103.148
1102.503
1101.824
1101.11
1100.362
1103.843
1103.232
1102.588
1101.91
1101.197
1104.454
1103.877
1103.266
1102.622
1101.944
1104.983
1104.438
1103.861
1103.25
1102.606
1105.432
1104.919
1104.374
1103.795
1103.184
1105.804
1105.322
1104.808
1104.262
1103.682
1106.103
1105.652
1105.17
1104.654
1104.106
1106.343
1105.923
1105.472
1104.988
1104.471
1106.553
1106.165
1105.745
1105.292
1104.807
1106.778
1106.421
1106.033
1105.612
1105.158
1107.017
1106.692
1106.335
1105.946
1105.525
1107.258
1106.965
1106.64
1106.283
1105.893
1107.491
1107.23
